s counts   # s = distance along line (pixels)
0.000000 94.127229
1.000152 63.940888
2.000303 66.958353
3.000455 73.399112
4.000607 80.876837
5.000758 70.716733
6.000910 62.703783
7.001061 90.922682
8.001213 97.380722
9.001365 69.447740
10.001516 99.130328
11.001668 87.363329
12.001820 75.812576
13.001971 87.715387
14.002123 83.031371
15.002274 101.126760
16.002426 85.071814
17.002578 83.937001
18.002729 84.049306
19.002881 83.143583
20.003033 76.632562
21.003184 104.237332
22.003336 84.794916
23.003487 84.978672
24.003639 82.921130
25.003791 78.251562
26.003942 83.954107
27.004094 93.358945
28.004246 93.998383
29.004397 88.970081
30.004549 78.545969
31.004701 91.194469
32.004852 88.554520
33.005004 92.595744
34.005155 83.705624
35.005307 72.309204
36.005459 65.609882
37.005610 72.016486
38.005762 78.331161
39.005914 82.641929
40.006065 90.540177
41.006217 91.770492
42.006368 89.562771
43.006520 80.536349
44.006672 82.221061
45.006823 85.931794
46.006975 101.416330
47.007127 110.761713
48.007278 91.906888
49.007430 99.302392
50.007582 105.111556
51.007733 94.216688
52.007885 88.839782
53.008036 80.957981
54.008188 89.089792
55.008340 86.742017
56.008491 80.148660
57.008643 89.059258
58.008795 100.037761
59.008946 75.102118
60.009098 78.843453
61.009249 92.868930
62.009401 79.677746
63.009553 80.319415
64.009704 124.922731
65.009856 89.398403
66.010008 91.905845
67.010159 90.119367
68.010311 85.083974
69.010462 101.034638
70.010614 93.987104
71.010766 75.272457
72.010917 97.621145
73.011069 78.860894
74.011221 86.615182
75.011372 79.231721
76.011524 84.764008
77.011676 94.618847
78.011827 93.507006
79.011979 111.392341
80.012130 103.952237
81.012282 83.288381
82.012434 84.366369
83.012585 96.384934
84.012737 91.499565
85.012889 88.481968
86.013040 93.710499
87.013192 102.920115
88.013343 100.806594
89.013495 119.586176
90.013647 98.037671
91.013798 107.669384
92.013950 110.072974
93.014102 98.071677
94.014253 118.697003
95.014405 88.716877
96.014557 113.445443
97.014708 138.111216
98.014860 139.199876
99.015011 127.917640
100.015163 120.385875
101.015315 117.669582
102.015466 110.919746
103.015618 155.711678
104.015770 178.546083
105.015921 126.894701
106.016073 117.501944
107.016224 129.424957
108.016376 136.992971
109.016528 156.419380
110.016679 151.411633
111.016831 141.146094
112.016983 159.288883
113.017134 198.669441
114.017286 224.297171
115.017437 199.551242
116.017589 213.551403
117.017741 222.455095
118.017892 210.297457
119.018044 246.552361
120.018196 271.354596
121.018347 256.885619
122.018499 274.993966
123.018651 293.825130
124.018802 310.445692
125.018954 341.872980
126.019105 378.241758
127.019257 417.562097
128.019409 414.677228
129.019560 444.982560
130.019712 507.149657
131.019864 529.282656
132.020015 560.268546
133.020167 563.475775
134.020318 612.559911
135.020470 642.074619
136.020622 661.786925
137.020773 703.718027
138.020925 696.275952
139.021077 771.324708
140.021228 793.717201
141.021380 816.357542
142.021532 874.672494
143.021683 856.744562
144.021835 819.452529
145.021986 942.216998
146.022138 1004.827225
147.022290 994.416601
148.022441 930.700842
149.022593 951.392049
150.022745 950.637538
151.022896 966.527640
152.023048 919.665433
153.023199 840.080880
154.023351 814.877157
155.023503 862.932154
156.023654 794.858460
157.023806 740.361943
158.023958 727.388904
159.024109 757.445471
160.024261 686.760989
161.024412 668.204733
162.024564 640.930246
163.024716 627.241218
164.024867 583.351739
165.025019 559.292322
166.025171 517.769713
167.025322 485.410300
168.025474 455.452317
169.025626 438.334784
170.025777 443.806304
171.025929 410.694996
172.026080 371.467416
173.026232 344.139829
174.026384 308.846108
175.026535 301.145317
176.026687 270.896752
177.026839 262.785555
178.026990 256.729631
179.027142 253.590354
180.027293 249.498148
181.027445 219.516066
182.027597 200.927654
183.027748 190.114131
184.027900 189.338511
185.028052 210.387352
186.028203 187.920739
187.028355 137.733179
188.028507 141.930312
189.028658 133.579012
190.028810 144.721511
191.028961 162.637949
192.029113 144.844918
193.029265 137.075033
194.029416 130.944964
195.029568 147.473423
196.029720 159.836841
197.029871 124.995589
198.030023 122.741014
199.030174 112.343455
200.030326 116.682976
201.030478 107.294725
202.030629 112.983719
203.030781 117.129669
204.030933 106.530761
205.031084 110.185451
206.031236 103.351197
207.031387 96.619594
208.031539 104.573057
209.031691 103.864632
210.031842 90.804427
211.031994 114.493648
212.032146 91.266953
213.032297 94.831225
214.032449 107.373304
215.032601 93.408990
216.032752 96.948453
217.032904 85.070371
218.033055 91.185375
219.033207 83.289612
220.033359 75.183288
221.033510 96.533103
222.033662 81.215953
223.033814 80.381111
224.033965 74.584657
225.034117 87.120010
226.034268 97.352597
227.034420 101.567266
228.034572 83.327732
229.034723 86.290249
230.034875 92.113448
231.035027 101.504184
232.035178 116.318681
233.035330 90.399263
234.035481 76.924420
235.035633 94.231875
236.035785 82.851972
237.035936 74.533254
238.036088 102.014602
239.036240 100.301507
240.036391 103.028690
241.036543 90.220867
242.036695 80.441203
243.036846 80.822836
244.036998 71.983512
245.037149 92.941113
246.037301 90.021405
247.037453 85.838633
248.037604 77.753489
249.037756 54.643589
250.037908 75.944462
251.038059 82.433189
252.038211 81.327069
253.038362 73.024857
254.038514 73.671046
255.038666 78.563030
256.038817 99.626535
257.038969 89.727860
258.039121 113.230610
259.039272 98.326151
260.039424 77.778508
261.039576 93.246934
262.039727 98.298878
263.039879 95.647552
264.040030 101.910964
265.040182 83.819585
266.040334 78.344252
267.040485 94.947866
268.040637 90.038192
269.040789 72.152427
270.040940 71.878559
271.041092 68.149972
272.041243 80.375408
273.041395 72.018159
274.041547 102.699257
275.041698 90.831057
276.041850 103.158948
277.042002 100.086720
278.042153 95.830221
279.042305 92.089947
280.042456 93.857795
281.042608 98.124176
282.042760 90.704199
283.042911 97.684096
284.043063 101.671996
285.043215 83.376490
286.043366 71.535757
287.043518 74.663080
288.043670 76.619116
289.043821 78.133456
290.043973 84.193436
291.044124 73.408207
292.044276 87.813697
293.044428 97.028966
294.044579 88.040844
295.044731 62.951216
296.044883 89.715611
297.045034 86.918048
298.045186 92.957313
299.045337 95.411217
300.045489 87.077960
301.045641 96.639032
302.045792 90.097003
303.045944 82.219698
304.046096 103.594841
305.046247 90.580781
306.046399 77.261599
307.046551 80.119300
308.046702 97.722883
309.046854 111.028743
310.047005 86.548319
311.047157 81.756298
312.047309 84.307431
313.047460 84.690787
314.047612 82.372871
315.047764 71.241727
316.047915 86.303313
317.048067 88.124608
318.048218 67.663642
319.048370 76.297344
320.048522 86.680669
321.048673 95.523386
322.048825 84.958614
323.048977 89.837001
324.049128 80.305696
325.049280 89.202043
326.049431 96.858848
327.049583 96.982427
328.049735 95.274476
329.049886 80.402062
330.050038 89.865850
331.050190 78.689667
332.050341 84.504373
333.050493 84.236234
334.050645 61.220763
335.050796 58.674697
336.050948 86.165904
337.051099 90.833820
338.051251 91.828774
339.051403 112.134944
340.051554 100.928372
341.051706 86.293457
342.051858 70.615479
343.052009 82.994302
344.052161 103.942605
345.052312 103.029181
346.052464 90.010461
347.052616 85.231700
348.052767 81.849639
349.052919 86.413267
350.053071 99.202672
351.053222 101.470111
352.053374 93.502925
353.053526 101.100582
354.053677 92.886074
355.053829 93.659967
356.053980 95.081363
357.054132 94.426037
358.054284 81.052760
359.054435 82.710577
360.054587 89.355723
361.054739 91.786256
362.054890 101.565361
363.055042 78.249516
364.055193 83.997633
365.055345 78.047494
366.055497 82.209961
367.055648 75.473424
368.055800 89.173069
369.055952 101.451908
370.056103 73.313323
371.056255 69.668060
372.056406 77.069691
373.056558 98.822857
374.056710 87.271256
375.056861 88.688703
376.057013 89.106444
377.057165 72.218312
378.057316 69.767448
379.057468 70.481803
380.057620 86.843046
381.057771 81.828499
382.057923 92.684463
383.058074 89.975578
384.058226 66.057040
385.058378 79.050893
386.058529 88.571691
387.058681 87.471668
388.058833 90.340189
389.058984 85.429612
390.059136 87.356173
391.059287 82.028982
392.059439 80.775171
393.059591 80.471839
394.059742 90.430025
395.059894 83.734430
396.060046 74.956120
397.060197 79.658744
398.060349 81.366431
399.060501 87.923870
400.060652 101.031398
401.060804 83.719390
402.060955 77.207529
403.061107 74.341334
404.061259 82.592086
405.061410 91.297653
406.061562 96.559127
407.061714 93.090138
408.061865 73.749433
409.062017 70.851896
410.062168 77.998668
411.062320 88.006791
412.062472 80.277072
413.062623 81.289154
414.062775 75.390100
415.062927 86.250264
416.063078 86.526798
417.063230 90.790633
418.063381 78.074898
419.063533 78.323165
420.063685 70.711988
421.063836 89.629518
422.063988 81.319932
423.064140 67.397613
424.064291 65.323194
425.064443 78.353321
426.064595 91.186711
427.064746 92.253761
428.064898 69.697660
429.065049 78.065096
430.065201 79.741389
431.065353 88.533137
432.065504 81.919568
433.065656 92.234754
434.065808 86.653739
435.065959 76.194908
436.066111 79.590391
437.066262 92.831187
438.066414 63.825507
439.066566 87.864379
440.066717 99.397841
441.066869 91.555114
442.067021 84.247630
443.067172 88.930030
444.067324 92.158930
445.067475 83.289307
446.067627 91.762206
447.067779 82.671905
448.067930 56.223946
449.068082 59.507608
450.068234 73.464812
451.068385 74.712083
452.068537 105.524547
453.068689 104.561790
454.068840 87.163769
455.068992 82.008363
456.069143 90.626084
457.069295 96.021943
458.069447 84.426324
459.069598 77.653942
460.069750 75.999113
461.069902 89.684075
462.070053 87.871704
463.070205 80.403496
464.070356 60.803406
465.070508 74.264386
466.070660 90.177440
467.070811 100.135588
468.070963 96.529788
469.071115 71.373260
470.071266 93.085719
471.071418 98.485079
472.071570 106.080482
473.071721 76.249000
474.071873 81.924465
475.072024 75.327566
476.072176 70.823581
477.072328 62.920507
478.072479 70.116331
479.072631 95.501614
480.072783 97.982490
481.072934 79.465126
482.073086 81.824682
483.073237 70.920105
484.073389 92.478880
485.073541 93.384141
486.073692 98.153695
487.073844 65.764192
488.073996 90.431281
489.074147 78.339861
490.074299 81.642150
491.074450 64.958109
492.074602 74.719417
493.074754 99.912261
494.074905 93.517503
495.075057 81.482504
496.075209 80.123834
497.075360 85.201586
498.075512 84.705195
499.075664 78.766655
500.075815 79.385901
501.075967 79.780564
502.076118 81.251389
503.076270 82.053197
504.076422 97.020157
505.076573 81.001960
506.076725 84.289409
507.076877 80.455458
508.077028 75.810044
509.077180 86.353047
510.077331 112.018838
511.077483 85.778283
512.077635 67.543717
513.077786 74.345522
514.077938 96.400458
515.078090 70.495784
516.078241 92.479350
517.078393 88.628006
518.078545 61.419075
519.078696 58.083431
520.078848 83.258805
521.078999 91.932609
522.079151 88.267013
523.079303 73.624702
524.079454 91.540272
525.079606 76.146409
526.079758 69.913160
527.079909 54.259083
528.080061 62.260595
529.080212 104.477115
530.080364 102.036870
531.080516 70.925714
532.080667 61.729367
533.080819 57.870637
534.080971 60.675580
535.081122 79.497270
536.081274 97.667626
537.081425 118.600379
538.081577 106.089296
539.081729 79.101964
540.081880 81.378662
541.082032 86.012697
542.082184 84.410829
543.082335 94.041069
544.082487 75.409805
545.082639 88.891997
546.082790 89.378683
547.082942 105.945346
548.083093 94.848644
549.083245 92.860119
550.083397 79.702748
551.083548 88.339220
552.083700 78.316074
553.083852 75.653701
554.084003 101.200884
555.084155 87.380588
556.084306 96.856439
557.084458 81.585542
558.084610 88.494208
559.084761 78.939613
560.084913 92.859370
561.085065 100.070472
562.085216 78.872956
563.085368 80.630712
564.085520 82.839772
565.085671 81.314374
566.085823 102.116811
567.085974 94.709311
568.086126 94.252771
569.086278 79.913396
570.086429 66.110065
571.086581 68.938294
572.086733 73.851953
573.086884 85.489486
574.087036 94.815740
575.087187 93.799043
576.087339 90.583082
577.087491 61.747567
578.087642 84.195344
579.087794 66.545957
580.087946 81.406659
581.088097 75.654744
582.088249 99.953401
583.088400 72.349346
584.088552 76.374051
585.088704 84.564069
586.088855 104.813809
587.089007 100.011079
588.089159 80.483233
589.089310 83.152602
590.089462 89.350580
591.089614 81.648858
592.089765 100.009047
593.089917 76.698593
594.090068 85.024882
595.090220 96.313087
596.090372 95.985079
597.090523 94.974880
598.090675 59.217756
599.090827 78.232691
600.090978 75.600489
601.091130 84.005299
602.091281 85.371421
603.091433 81.730393
604.091585 85.099679
605.091736 81.109917
606.091888 78.093755
607.092040 80.239736
608.092191 81.041157
609.092343 79.015535
610.092495 105.909304
611.092646 97.456916
612.092798 93.120010
613.092949 93.301364
614.093101 84.564294
615.093253 62.840072
616.093404 88.936188
617.093556 93.550352
618.093708 98.452550
619.093859 103.370961
620.094011 81.997915
621.094162 86.173263
622.094314 89.332433
623.094466 59.950404
624.094617 69.633609
625.094769 85.966853
626.094921 93.603594
627.095072 88.385640
628.095224 85.272987
629.095375 65.481396
630.095527 80.586252
631.095679 86.043410
632.095830 90.044799
633.095982 112.500461
634.096134 74.582331
635.096285 81.328732
636.096437 88.015899
637.096589 75.601924
638.096740 79.285717
639.096892 86.432297
640.097043 94.774565
641.097195 65.973456
642.097347 80.815826
643.097498 92.201516
644.097650 94.807121
645.097802 68.601568
646.097953 88.833388
647.098105 93.411165
648.098256 83.880148
649.098408 85.307124
650.098560 90.218444
651.098711 63.966131
652.098863 79.687472
653.099015 81.641361
654.099166 81.123057
655.099318 97.904403
656.099469 99.918447
657.099621 94.024327
658.099773 80.862397
659.099924 94.993281
660.100076 110.107969
661.100228 90.068328
662.100379 95.412151
663.100531 97.549238
664.100683 95.257131
665.100834 93.528068
666.100986 78.768632
667.101137 70.486173
668.101289 99.118440
669.101441 75.789943
670.101592 86.819099
671.101744 95.725456
672.101896 94.033125
673.102047 81.682983
674.102199 75.514833
675.102350 95.223448
676.102502 73.093362
677.102654 67.941892
678.102805 65.796565
679.102957 90.908293
680.103109 78.464987
681.103260 90.529064
682.103412 87.342503
683.103564 92.657348
684.103715 85.817590
685.103867 89.493786
686.104018 83.415318
687.104170 108.284499
688.104322 100.845474
689.104473 89.874103
690.104625 100.024153
691.104777 87.963435
692.104928 94.546531
693.105080 89.618027
694.105231 93.460366
695.105383 87.270672
696.105535 69.607694
697.105686 84.355549
698.105838 85.881565
699.105990 73.627033
700.106141 92.412945
701.106293 83.188048
702.106444 96.294263
703.106596 81.026600
704.106748 73.113989
705.106899 79.138547
706.107051 115.617797
707.107203 102.434892
708.107354 76.192712
709.107506 82.882110
710.107658 83.621614
711.107809 92.563709
712.107961 67.264668
713.108112 65.848293
714.108264 79.267050
715.108416 98.857617
716.108567 100.877811
717.108719 81.967507
718.108871 78.883885
719.109022 95.026534
720.109174 56.689746
721.109325 75.359193
722.109477 80.595831
723.109629 85.513705
724.109780 83.342412
725.109932 97.866562
726.110084 107.718171
727.110235 85.749845
728.110387 76.599169
729.110539 76.840079
730.110690 78.735294
731.110842 72.850604
732.110993 80.954484
733.111145 61.678082
734.111297 70.200415
735.111448 79.062250
736.111600 81.196484
737.111752 80.664898
738.111903 85.625495
739.112055 80.439175
740.112206 68.157410
741.112358 89.783788
742.112510 77.490209
743.112661 89.060420
744.112813 112.374108
745.112965 92.475267
746.113116 64.459219
747.113268 68.660805
748.113419 77.746487
749.113571 61.735236
750.113723 71.553798
751.113874 94.222958
752.114026 98.973279
753.114178 85.309481
754.114329 84.446896
755.114481 63.501667
756.114633 75.687477
757.114784 80.590431
758.114936 95.101185
759.115087 84.901047
760.115239 86.922158
761.115391 87.153699
762.115542 71.151697
763.115694 56.957103
764.115846 88.414659
765.115997 87.122033
766.116149 87.846066
767.116300 94.703606
768.116452 101.111181
769.116604 72.118804
770.116755 78.549014
771.116907 97.857733
772.117059 93.873550
773.117210 89.566432
774.117362 86.695555
775.117514 100.046382
776.117665 117.882359
777.117817 94.289100
778.117968 82.423285
779.118120 94.810128
780.118272 92.103997
781.118423 84.657465
782.118575 89.091559
783.118727 78.413337
784.118878 72.109557
785.119030 93.097190
786.119181 91.989630
787.119333 86.428317
788.119485 77.025640
789.119636 63.677461
790.119788 71.742635
791.119940 94.964946
792.120091 83.885661
793.120243 86.293153
794.120394 85.293619
795.120546 84.224317
796.120698 75.405221
797.120849 87.859401
798.121001 80.614612
799.121153 81.684717
800.121304 95.545125
801.121456 101.635128
802.121608 94.631500
803.121759 96.052977
804.121911 78.716125
805.122062 86.241453
806.122214 82.364660
807.122366 97.553538
808.122517 100.851740
809.122669 75.500651
810.122821 91.090248
811.122972 111.330681
812.123124 102.974136
813.123275 81.016624
814.123427 71.341813
815.123579 95.601795
816.123730 113.702178
817.123882 84.352573
818.124034 83.527212
819.124185 62.297254
820.124337 70.145888
821.124489 91.281975
822.124640 88.283109
823.124792 86.792501
824.124943 63.546919
825.125095 79.688558
826.125247 96.454842
827.125398 78.335678
828.125550 86.592075
829.125702 110.772357
830.125853 89.813458
831.126005 91.921365
832.126156 81.653683
833.126308 93.864866
834.126460 98.054977
835.126611 75.610549
836.126763 75.573149
837.126915 70.430889
838.127066 75.772772
839.127218 92.838652
840.127369 84.229420
841.127521 81.806224
842.127673 96.655120
843.127824 97.176425
844.127976 84.299060
845.128128 83.696237
846.128279 92.797581
847.128431 108.302682
848.128583 91.815854
849.128734 99.275527
850.128886 79.588404
851.129037 95.763868
852.129189 97.874945
853.129341 75.837578
854.129492 103.287838
855.129644 95.427455
856.129796 83.139214
857.129947 81.949049
858.130099 110.644215
859.130250 95.453679
860.130402 81.314880
861.130554 94.020366
862.130705 76.068531
863.130857 72.277601
864.131009 63.525370
865.131160 68.727603
866.131312 91.924242
867.131464 96.323544
868.131615 96.113179
869.131767 82.624495
870.131918 72.962884
871.132070 95.494197
872.132222 100.156187
873.132373 68.693519
874.132525 69.160859
875.132677 83.175988
876.132828 80.799861
877.132980 97.101929
878.133131 87.182434
879.133283 74.760558
880.133435 80.029601
881.133586 74.910391
882.133738 79.582297
883.133890 83.631850
884.134041 63.730685
885.134193 65.418759
886.134344 88.145308
887.134496 92.278865
888.134648 100.464754
889.134799 75.304594
890.134951 89.761965
891.135103 112.523218
892.135254 97.525976
893.135406 91.647079
894.135558 84.132163
895.135709 98.972826
896.135861 90.798365
897.136012 97.428833
898.136164 97.042091
899.136316 91.276698
900.136467 95.400479
901.136619 87.853678
902.136771 98.010921
903.136922 76.745364
904.137074 83.816308
905.137225 50.808192
906.137377 69.671942
907.137529 114.312242
908.137680 77.824470
909.137832 37.053692
910.137984 85.920817
911.138135 91.685994
912.138287 63.813287
913.138438 89.630102
914.138590 81.120024
915.138742 78.714249
916.138893 79.194309
917.139045 86.696719
918.139197 100.752308
919.139348 85.776054
920.139500 78.411047
921.139652 90.966132
922.139803 85.084065
923.139955 81.894698
924.140106 87.548881
925.140258 90.286275
926.140410 85.644314
927.140561 94.792483
928.140713 95.593199
929.140865 94.278013
930.141016 93.076287
931.141168 92.300764
932.141319 70.084934
933.141471 81.333854
934.141623 94.463902
935.141774 79.292689
936.141926 89.934574
937.142078 98.675824
938.142229 69.537464
939.142381 87.425703
940.142533 96.802757
941.142684 84.034900
942.142836 99.281363
943.142987 92.483344
944.143139 93.762566
