s counts   # s = distance along line (pixels)
0.000000 473.362814
1.000127 461.329745
2.000254 442.445817
3.000381 430.861689
4.000508 447.284529
5.000634 458.216143
6.000761 449.483763
7.000888 457.118489
8.001015 443.000831
9.001142 436.067813
10.001269 438.087396
11.001396 433.369456
12.001523 438.389568
13.001650 457.667373
14.001776 501.540011
15.001903 475.668610
16.002030 477.019898
17.002157 470.271885
18.002284 474.085545
19.002411 451.416238
20.002538 444.514587
21.002665 464.541487
22.002792 460.988134
23.002918 458.052249
24.003045 458.189154
25.003172 488.205210
26.003299 492.643460
27.003426 491.790353
28.003553 482.804246
29.003680 445.071108
30.003807 468.107889
31.003934 489.727966
32.004060 489.041642
33.004187 483.794004
34.004314 506.006995
35.004441 494.569991
36.004568 506.206723
37.004695 484.923814
38.004822 514.207543
39.004949 531.568067
40.005076 539.474509
41.005202 563.422474
42.005329 577.553220
43.005456 565.792397
44.005583 584.584695
45.005710 639.310071
46.005837 615.924194
47.005964 637.660155
48.006091 659.596792
49.006218 695.228632
50.006344 781.110439
51.006471 769.926206
52.006598 823.060607
53.006725 918.227958
54.006852 942.770289
55.006979 1030.102701
56.007106 1140.279499
57.007233 1133.134303
58.007360 1200.942538
59.007486 1271.985953
60.007613 1327.177570
61.007740 1473.160316
62.007867 1617.626188
63.007994 1771.049288
64.008121 1871.984968
65.008248 1913.403421
66.008375 2000.652663
67.008502 2148.352749
68.008628 2239.028947
69.008755 2349.932347
70.008882 2387.009231
71.009009 2455.819952
72.009136 2609.009349
73.009263 2607.121624
74.009390 2702.949951
75.009517 2765.384439
76.009644 2766.207720
77.009771 2779.060815
78.009897 2678.818738
79.010024 2737.771768
80.010151 2739.869711
81.010278 2777.837088
82.010405 2599.513374
83.010532 2554.227248
84.010659 2481.729448
85.010786 2398.209174
86.010913 2322.064612
87.011039 2214.010876
88.011166 2084.089563
89.011293 1957.540819
90.011420 1853.325138
91.011547 1859.801484
92.011674 1744.033702
93.011801 1612.345033
94.011928 1621.427614
95.012055 1506.614799
96.012181 1422.177988
97.012308 1385.535254
98.012435 1268.668751
99.012562 1195.355837
100.012689 1120.041059
101.012816 1072.625936
102.012943 1031.176598
103.013070 986.171073
104.013197 940.948988
105.013323 870.114227
106.013450 806.322310
107.013577 805.267762
108.013704 838.882610
109.013831 812.366277
110.013958 700.499357
111.014085 667.209224
112.014212 671.237774
113.014339 679.539914
114.014465 662.891869
115.014592 658.305367
116.014719 600.823884
117.014846 564.966783
118.014973 583.218259
119.015100 554.028130
120.015227 550.229716
121.015354 554.421676
122.015481 535.007967
123.015607 508.634268
124.015734 522.019488
125.015861 527.473840
126.015988 502.278421
127.016115 496.787121
128.016242 504.463940
129.016369 507.576333
130.016496 499.223900
131.016623 485.339073
132.016749 454.366800
133.016876 467.755929
134.017003 449.210390
135.017130 472.485667
136.017257 442.062014
137.017384 478.697648
138.017511 461.925907
139.017638 481.345119
140.017765 448.745793
141.017891 454.189700
142.018018 455.941498
143.018145 465.261869
144.018272 456.793573
145.018399 454.977076
146.018526 449.543736
147.018653 446.554209
148.018780 460.406854
149.018907 455.073450
150.019033 458.965285
151.019160 455.772280
152.019287 446.025754
153.019414 469.114555
154.019541 439.486574
155.019668 431.674417
156.019795 451.347093
157.019922 439.335155
158.020049 456.053529
159.020175 456.924357
160.020302 446.176633
161.020429 449.176004
162.020556 443.778450
163.020683 448.898637
164.020810 449.294716
165.020937 449.204117
166.021064 444.868239
167.021191 442.733221
168.021317 452.384353
169.021444 444.086430
170.021571 441.080370
171.021698 448.491259
172.021825 447.271983
173.021952 446.054365
174.022079 456.778655
175.022206 453.345589
176.022333 443.602178
177.022459 441.028861
178.022586 463.103549
179.022713 443.126165
180.022840 441.497831
181.022967 457.125567
182.023094 451.376801
183.023221 452.410254
184.023348 448.414093
185.023475 436.897015
186.023601 441.818770
187.023728 455.675957
188.023855 455.471781
189.023982 452.895228
190.024109 438.490200
191.024236 435.643954
192.024363 439.067441
193.024490 434.284276
194.024617 436.952828
195.024743 441.682155
196.024870 448.549116
197.024997 448.697707
198.025124 451.654079
199.025251 449.588629
200.025378 448.858341
201.025505 461.743311
202.025632 462.829684
203.025759 437.152915
204.025885 449.119341
205.026012 456.976858
206.026139 450.167263
207.026266 437.404446
208.026393 427.754617
209.026520 453.421970
210.026647 434.611206
211.026774 443.320332
212.026901 441.522219
213.027027 436.294883
214.027154 456.846506
215.027281 457.562697
216.027408 459.342165
217.027535 454.311714
218.027662 456.634037
219.027789 437.044770
220.027916 452.785288
221.028043 455.824098
222.028169 458.042858
223.028296 440.782749
224.028423 446.414308
225.028550 450.667589
226.028677 446.104770
227.028804 442.763720
228.028931 444.708596
229.029058 440.540143
230.029185 439.196886
231.029312 446.782456
232.029438 452.662017
233.029565 443.735076
234.029692 455.915044
235.029819 444.717331
236.029946 434.325782
237.030073 451.759634
238.030200 435.339385
239.030327 444.496737
240.030454 436.741072
241.030580 432.258505
242.030707 429.131673
243.030834 433.564136
244.030961 437.354260
245.031088 438.051719
246.031215 444.113553
247.031342 443.810347
248.031469 448.603832
249.031596 437.354415
250.031722 445.355082
251.031849 447.901791
252.031976 441.679739
253.032103 443.663173
254.032230 453.457901
255.032357 457.303085
256.032484 465.348680
257.032611 445.754558
258.032738 444.906522
259.032864 484.567575
260.032991 438.430843
261.033118 457.340473
262.033245 426.437684
263.033372 445.215111
264.033499 444.674124
265.033626 437.911876
266.033753 440.506942
267.033880 438.053210
268.034006 458.358466
269.034133 463.164894
270.034260 474.220622
271.034387 451.827119
272.034514 453.077178
273.034641 450.742162
274.034768 439.007468
275.034895 459.280405
276.035022 455.030174
277.035148 440.172009
278.035275 451.925006
279.035402 449.489099
280.035529 438.307857
281.035656 453.419363
282.035783 452.951157
283.035910 456.009122
284.036037 444.417431
285.036164 443.464272
286.036290 445.988825
287.036417 448.270942
288.036544 438.443952
289.036671 434.025318
290.036798 435.787876
291.036925 437.575199
292.037052 444.484883
293.037179 430.199747
294.037306 449.694626
295.037432 432.917062
296.037559 451.423043
297.037686 453.870655
298.037813 444.647562
299.037940 445.615497
300.038067 445.861030
301.038194 450.514628
302.038321 434.854611
303.038448 446.427062
304.038574 433.926434
305.038701 441.453022
306.038828 443.588065
307.038955 446.308081
308.039082 435.485414
309.039209 444.453950
310.039336 447.642689
311.039463 441.254126
312.039590 438.206243
313.039716 444.738039
314.039843 457.568499
315.039970 438.820796
316.040097 432.992107
317.040224 454.077425
318.040351 463.934726
319.040478 456.433116
320.040605 468.226279
321.040732 457.335215
322.040858 444.915615
323.040985 454.165756
324.041112 454.060258
325.041239 452.977525
326.041366 441.649254
327.041493 436.052320
328.041620 431.839419
329.041747 443.682720
330.041874 440.450781
331.042000 444.693501
332.042127 445.185509
333.042254 444.462511
334.042381 458.273098
335.042508 445.817690
336.042635 434.823480
337.042762 447.769827
338.042889 426.875041
339.043016 445.160248
340.043142 436.751615
341.043269 438.215361
342.043396 430.572910
343.043523 440.522936
344.043650 434.426162
345.043777 443.633141
346.043904 439.591766
347.044031 463.016134
348.044158 435.867360
349.044284 442.048229
350.044411 432.099409
351.044538 461.219566
352.044665 460.043248
353.044792 459.004890
354.044919 468.686682
355.045046 451.005476
356.045173 437.769168
357.045300 435.592342
358.045426 441.884494
359.045553 459.087683
360.045680 450.996146
361.045807 450.638519
362.045934 453.917459
363.046061 450.465284
364.046188 437.265497
365.046315 436.544957
366.046442 448.422905
367.046568 426.884609
368.046695 430.715774
369.046822 452.250683
370.046949 457.829053
371.047076 446.051909
372.047203 442.558987
373.047330 437.765434
374.047457 441.026568
375.047584 452.673473
376.047710 448.334089
377.047837 444.148519
378.047964 454.239692
379.048091 449.902733
380.048218 463.859970
381.048345 431.034696
382.048472 451.324215
383.048599 440.040843
384.048726 432.453827
385.048853 445.873929
386.048979 438.990775
387.049106 442.299372
388.049233 462.603832
389.049360 438.871004
390.049487 454.765856
391.049614 440.958702
392.049741 431.707382
393.049868 468.626930
394.049995 437.323130
395.050121 431.537846
396.050248 448.665789
397.050375 451.367348
398.050502 464.928389
399.050629 457.280616
400.050756 415.450783
401.050883 435.618530
402.051010 445.522368
403.051137 445.565330
404.051263 438.349132
405.051390 431.204742
406.051517 453.681620
407.051644 456.032175
408.051771 424.649061
409.051898 439.436036
410.052025 428.941628
411.052152 436.591469
412.052279 464.663200
413.052405 435.310952
414.052532 436.771562
415.052659 452.492999
416.052786 465.743811
417.052913 438.047349
418.053040 484.262573
419.053167 469.775481
420.053294 460.925683
421.053421 450.223127
422.053547 434.710306
423.053674 437.480664
424.053801 427.010708
425.053928 435.458104
426.054055 452.905043
427.054182 435.134383
428.054309 441.512229
429.054436 455.784163
430.054563 457.697248
431.054689 452.130331
432.054816 442.296397
433.054943 442.597751
434.055070 448.295650
435.055197 446.658500
436.055324 440.002353
437.055451 446.129619
438.055578 429.448975
439.055705 442.370473
440.055831 452.629008
441.055958 439.582006
442.056085 450.941118
443.056212 441.026033
444.056339 454.492790
445.056466 460.389337
446.056593 432.767344
447.056720 454.392468
448.056847 446.479900
449.056973 437.318945
450.057100 455.917869
451.057227 468.474126
452.057354 442.538013
453.057481 451.834169
454.057608 434.064332
455.057735 436.734916
456.057862 442.658110
457.057989 469.511874
458.058115 454.215224
459.058242 459.845724
460.058369 440.056086
461.058496 453.906438
462.058623 439.246146
463.058750 448.049936
464.058877 431.938741
465.059004 450.808279
466.059131 428.104823
467.059257 448.842847
468.059384 431.935825
469.059511 451.812908
470.059638 434.112020
471.059765 438.215719
472.059892 447.747939
473.060019 438.439160
474.060146 452.109624
475.060273 455.545503
476.060399 452.813828
477.060526 465.259569
478.060653 459.081416
479.060780 448.839878
480.060907 451.229964
481.061034 450.203746
482.061161 427.921988
483.061288 442.700797
484.061415 429.684112
485.061541 442.927398
486.061668 435.092577
487.061795 455.797946
488.061922 448.610244
489.062049 450.759765
490.062176 436.602393
491.062303 436.556649
492.062430 441.097715
493.062557 445.841356
494.062683 427.833420
495.062810 445.703540
496.062937 443.231130
497.063064 428.183411
498.063191 457.343495
499.063318 433.386725
500.063445 426.518249
501.063572 435.439071
502.063699 435.384415
503.063825 441.256968
504.063952 441.049944
505.064079 460.254991
506.064206 444.083884
507.064333 440.057901
508.064460 438.296471
509.064587 475.760005
510.064714 437.485397
511.064841 433.961322
512.064967 442.036672
513.065094 458.506516
514.065221 434.529964
515.065348 442.360517
516.065475 455.820946
517.065602 438.736580
518.065729 451.299891
519.065856 438.564642
520.065983 444.521664
521.066109 450.844170
522.066236 427.911378
523.066363 432.148930
524.066490 451.810446
525.066617 435.583686
526.066744 448.280339
527.066871 446.397774
528.066998 443.828670
529.067125 432.589382
530.067251 440.030169
531.067378 458.925966
532.067505 431.877618
533.067632 458.758495
534.067759 439.798161
535.067886 441.052340
536.068013 437.315186
537.068140 439.741763
538.068267 447.515415
539.068394 444.384179
540.068520 457.187216
541.068647 446.806819
542.068774 436.740494
543.068901 449.458183
544.069028 435.812028
545.069155 457.128643
546.069282 448.822358
547.069409 429.053889
548.069536 445.296773
549.069662 444.358824
550.069789 444.118868
551.069916 448.055231
552.070043 464.920322
553.070170 444.851865
554.070297 449.909026
555.070424 461.683386
556.070551 451.451541
557.070678 425.926113
558.070804 427.950821
559.070931 439.416417
560.071058 448.617478
561.071185 441.717240
562.071312 432.724718
563.071439 451.373520
564.071566 447.058630
565.071693 449.646273
566.071820 445.759270
567.071946 438.665146
568.072073 449.498641
569.072200 446.187052
570.072327 449.375462
571.072454 452.024966
572.072581 435.393283
573.072708 458.766449
574.072835 444.491233
575.072962 464.681916
576.073088 430.481811
577.073215 446.716282
578.073342 458.592030
579.073469 422.792637
580.073596 428.183535
581.073723 453.133582
582.073850 444.236052
583.073977 446.039021
584.074104 433.534527
585.074230 454.019869
586.074357 448.534709
587.074484 449.454299
588.074611 443.713094
589.074738 444.439339
590.074865 455.284884
591.074992 435.007883
592.075119 436.620891
593.075246 436.306273
594.075372 452.740954
595.075499 450.189450
596.075626 448.031725
597.075753 431.422264
598.075880 458.267475
599.076007 460.228159
600.076134 444.723074
601.076261 448.964250
602.076388 441.705361
603.076514 450.966843
604.076641 442.014582
605.076768 447.384144
606.076895 445.514117
607.077022 436.777841
608.077149 445.035770
609.077276 442.920669
610.077403 441.937546
611.077530 436.598617
612.077656 426.983775
613.077783 444.664370
614.077910 435.457249
615.078037 431.677029
616.078164 443.508457
617.078291 447.363775
618.078418 439.732288
619.078545 455.336198
620.078672 451.979869
621.078798 457.008214
622.078925 439.039846
623.079052 446.343056
624.079179 442.586737
625.079306 441.877088
626.079433 436.022513
627.079560 447.984642
628.079687 440.339218
629.079814 459.840145
630.079940 453.097356
631.080067 454.023180
632.080194 458.183336
633.080321 441.503220
634.080448 445.862140
635.080575 441.391987
636.080702 458.837917
637.080829 441.415890
638.080956 461.760307
639.081082 446.874434
640.081209 457.074134
641.081336 452.026735
642.081463 458.795168
643.081590 437.173243
644.081717 442.033979
645.081844 426.295499
646.081971 435.497175
647.082098 437.401704
648.082224 448.734238
649.082351 449.697830
650.082478 438.980513
651.082605 435.082588
652.082732 465.534075
653.082859 456.700461
654.082986 448.483406
655.083113 457.640896
656.083240 462.515385
657.083366 447.870250
658.083493 437.384085
659.083620 448.630374
660.083747 458.403251
661.083874 442.544046
662.084001 446.968218
663.084128 434.359025
664.084255 427.496675
665.084382 448.008107
666.084508 440.376880
667.084635 445.505704
668.084762 457.898203
669.084889 437.019528
670.085016 439.241649
671.085143 445.039075
672.085270 444.510360
673.085397 440.138166
674.085524 442.346945
675.085650 442.824349
676.085777 447.518657
677.085904 447.616074
678.086031 456.459041
679.086158 460.099450
680.086285 450.005030
681.086412 444.732542
682.086539 447.218539
683.086666 445.100560
684.086792 448.413386
685.086919 441.534580
686.087046 454.622917
687.087173 443.929921
688.087300 442.536742
689.087427 459.566999
690.087554 466.527287
691.087681 448.737009
692.087808 453.273598
693.087935 435.918824
694.088061 447.829296
695.088188 461.089167
696.088315 449.297412
697.088442 453.881295
698.088569 448.551186
699.088696 456.647320
700.088823 446.831673
701.088950 444.572009
702.089077 467.501151
703.089203 458.942209
704.089330 465.557149
705.089457 467.583302
706.089584 435.552636
707.089711 439.994528
708.089838 435.364672
709.089965 440.429498
710.090092 439.706271
711.090219 466.046281
712.090345 485.556470
713.090472 441.891366
714.090599 464.258421
715.090726 470.032290
716.090853 471.357321
717.090980 476.681892
718.091107 463.103511
719.091234 474.944755
720.091361 484.185886
721.091487 477.807846
722.091614 478.372275
723.091741 470.462093
724.091868 488.265291
725.091995 500.200622
726.092122 469.195633
727.092249 485.433217
728.092376 482.072019
729.092503 482.108293
730.092629 482.244537
731.092756 498.927526
732.092883 492.185157
733.093010 522.596795
734.093137 510.700390
735.093264 492.599237
736.093391 486.498353
737.093518 505.568849
738.093645 500.133385
739.093771 518.282466
740.093898 505.582913
741.094025 509.558552
742.094152 528.673571
743.094279 526.853260
744.094406 547.849774
745.094533 561.470533
746.094660 563.265634
747.094787 580.786214
748.094913 533.994460
749.095040 559.125716
750.095167 571.141528
751.095294 594.007720
752.095421 613.113908
753.095548 600.592870
754.095675 597.716353
755.095802 634.066931
756.095929 608.601971
757.096055 633.275421
758.096182 637.689460
759.096309 601.137985
760.096436 659.730482
761.096563 640.676104
762.096690 675.078752
763.096817 670.448335
764.096944 663.986560
765.097071 665.034204
766.097197 665.078389
767.097324 677.780682
768.097451 688.783150
769.097578 677.156037
770.097705 674.030264
771.097832 701.427204
772.097959 726.526581
773.098086 736.015857
774.098213 699.785344
775.098339 725.820099
776.098466 731.650606
777.098593 728.080733
778.098720 757.536080
779.098847 765.333947
780.098974 782.291542
781.099101 745.443082
782.099228 712.325132
783.099355 723.622660
784.099481 764.666165
785.099608 771.788539
786.099735 808.321775
787.099862 785.646679
788.099989 812.862524
789.100116 778.620396
790.100243 784.632028
791.100370 812.390858
792.100497 845.206756
793.100623 820.964371
794.100750 851.380906
795.100877 824.632766
796.101004 830.818609
797.101131 899.933394
798.101258 853.136632
799.101385 851.976352
800.101512 857.288389
801.101639 863.106329
802.101765 893.598006
803.101892 876.026713
804.102019 882.492675
805.102146 893.862401
806.102273 893.787564
807.102400 923.027601
808.102527 957.832110
809.102654 922.351933
810.102781 866.332471
811.102907 914.880320
812.103034 956.588164
813.103161 913.489502
814.103288 960.938708
815.103415 989.427446
816.103542 972.306715
817.103669 975.304364
818.103796 982.293532
819.103923 978.413666
820.104049 1016.614933
821.104176 973.874871
822.104303 977.857689
823.104430 1029.895782
824.104557 1032.541604
825.104684 1045.475421
826.104811 1044.345561
827.104938 1067.450011
828.105065 1057.851135
829.105191 1058.669854
830.105318 1064.225480
831.105445 1051.088762
832.105572 1082.151739
833.105699 1099.085343
834.105826 1112.031628
835.105953 1114.980385
836.106080 1114.699994
837.106207 1087.766650
838.106334 1101.136702
839.106460 1094.772776
840.106587 1104.114212
841.106714 1146.198094
842.106841 1188.019478
843.106968 1168.930587
844.107095 1170.593989
845.107222 1194.475688
846.107349 1177.790303
847.107476 1188.777323
848.107602 1228.777406
849.107729 1240.445751
850.107856 1220.896012
851.107983 1231.893723
852.108110 1249.542327
853.108237 1262.424930
854.108364 1241.197589
855.108491 1272.406047
856.108618 1298.912158
857.108744 1280.513255
858.108871 1309.995223
859.108998 1267.317650
860.109125 1298.853051
861.109252 1289.529823
862.109379 1242.943941
863.109506 1278.014587
864.109633 1307.835357
865.109760 1274.640551
866.109886 1320.344912
867.110013 1340.919206
868.110140 1303.267411
869.110267 1295.777031
870.110394 1368.388778
871.110521 1323.070750
872.110648 1306.386468
873.110775 1362.617154
874.110902 1392.435601
875.111028 1333.974615
876.111155 1332.955896
877.111282 1420.492330
878.111409 1352.676467
879.111536 1311.739566
880.111663 1389.973629
881.111790 1388.549956
882.111917 1395.694990
883.112044 1402.468206
884.112170 1366.756566
885.112297 1377.666591
886.112424 1338.452352
887.112551 1365.925376
888.112678 1373.926949
889.112805 1399.944075
890.112932 1487.780327
891.113059 1462.108193
892.113186 1361.167758
893.113312 1412.528798
894.113439 1482.236118
895.113566 1467.460897
896.113693 1425.591782
897.113820 1442.305601
898.113947 1450.624559
899.114074 1398.555050
900.114201 1449.502297
901.114328 1522.651836
902.114454 1487.560996
903.114581 1490.944751
904.114708 1515.759557
905.114835 1558.532850
